Time(s),MC SW Overview - Actual Position(mm),MC SW Force Control - Measured Force(N),MC SW Force Control - Actual Acceleration(m/s^2),MC SW Overview - Actual Velocity(m/s),
0,-0.1581,-5.1,-2.063,-0.001688,
0.005,-0.1532,-5.1,3.166,0.003288,
0.01,-0.1562,-5.1,0.589,0,
0.015,-0.1562,-5.1,1.383,0.001688,
0.02,-0.1587,-5.1,0.052,-0.004888,
0.025,-0.1575,-5.2,-1.788,-0.001155,
0.03,-0.1575,-5.1,-2.944,-0.000533,
0.035,-0.155,-5.1,1.435,0.004355,
0.04,-0.1605,-5.1,-0.373,-0.000533,
0.045,-0.1569,-5.1,3.031,0.0048,
0.05,-0.1617,-5.1,-0.887,-0.0016,
0.055,-0.1617,-5.1,1.331,0.001155,
0.06,-0.1703,-5.1,-4.16,-0.007111,
0.065,-0.1746,-5.1,1.366,0,
0.07,-0.1752,-5.2,-1.378,0.002666,
0.075,-0.1794,-5.2,-0.204,0,
0.08,-0.1928,-5.3,-5.315,-0.006577,
0.085,-0.2587,-5.5,1.565,-0.017955,
0.09,-0.393,-5.4,-1.64,-0.030933,
0.095,-0.562,-5.3,0.63,-0.032533,
0.1,-0.758,-5.2,-0.406,-0.038577,
0.105,-0.9533,-5.1,2.53,-0.034755,
0.11,-1.1388,-5,-1.976,-0.035822,
0.115,-1.3012,-5,2.366,-0.029333,
0.12,-1.4507,-5.1,-3.583,-0.030399,
0.125,-1.588,-5.1,0.048,-0.024888,
0.13,-1.7327,-5.2,0.5,-0.028266,
0.135,-1.8877,-5.2,-6.317,-0.029244,
0.14,-2.0659,-5.2,-1.236,-0.039022,
0.145,-2.2503,-5.2,2.027,-0.034222,
0.15,-2.4535,-5.2,-4.37,-0.043377,
0.155,-2.6665,-5.1,5.7,-0.040088,
0.16,-2.8917,-5.1,2.352,-0.045511,
0.165,-3.1182,-5.2,-0.356,-0.041244,
0.17,-3.3544,-5.1,-1.49,-0.0472,
0.175,-3.5912,-5.2,-2.633,-0.042844,
0.18,-3.8445,-5.1,-0.167,-0.052622,
0.185,-4.0899,-5.2,0.388,-0.047733,
0.19,-4.3511,-5.2,4.896,-0.051022,
0.195,-4.6209,-5.2,3.71,-0.051555,
0.2,-4.8998,-5.2,-6.354,-0.059111,
0.205,-5.1787,-5.1,6.727,-0.048266,
0.21,-5.4699,-5.2,1.543,-0.054844,
0.215,-5.7671,-5.2,2.033,-0.054755,
0.22,-6.0747,-5.2,-2.265,-0.061866,
0.225,-6.3909,-5.2,3.894,-0.060266,
0.23,-6.715,-5.2,-0.522,-0.066222,
0.235,-7.044,-5.2,-0.495,-0.064622,
0.24,-7.3833,-5.2,-2.627,-0.070488,
0.245,-7.7282,-5.2,-1.504,-0.068355,
0.25,-8.0852,-5.2,-1.607,-0.073777,
0.255,-8.4478,-5.2,2.69,-0.068355,
0.26,-8.8207,-5.2,-2.285,-0.076,
0.265,-9.1973,-5.2,2.002,-0.074311,
0.27,-9.5824,-5.2,-0.088,-0.075377,
0.275,-9.9755,-5.1,1.122,-0.0792,
0.28,-10.3728,-5.2,-2.731,-0.0776,
0.285,-10.7775,-5.2,2.581,-0.079733,
0.29,-11.184,-5.2,-2.406,-0.083022,
0.295,-11.596,-5.2,-1.829,-0.083555,
0.3,-12.0104,-5.2,1.813,-0.078133,
0.305,-12.4407,-5.2,4.686,-0.081955,
0.31,-12.8728,-5.2,-6.312,-0.093333,
0.315,-13.3092,-5.2,-2.232,-0.083022,
0.32,-13.7584,-5.2,-2.505,-0.088977,
0.325,-14.2089,-5.3,5.169,-0.083022,
0.33,-14.6691,-5.3,-1.373,-0.092266,
0.335,-15.1238,-5.3,-1.151,-0.092266,
0.34,-15.584,-5.3,1.583,-0.091644,
0.345,-16.0479,-5.2,3.249,-0.090044,
0.35,-16.5142,-5.2,0.709,-0.093333,
0.355,-16.9768,-5.3,0.772,-0.093866,
0.36,-17.4425,-5.2,0.952,-0.092711,
0.365,-17.9088,-5.3,-0.253,-0.095466,
0.37,-18.3739,-5.3,0.307,-0.093866,
0.375,-18.8494,-5.2,-2.512,-0.096,
0.38,-19.3248,-5.2,1.188,-0.095466,
0.385,-19.8034,-5.2,-0.462,-0.095555,
0.39,-20.288,-5.3,0.741,-0.099288,
0.395,-20.7732,-5.2,-0.5,-0.096,
0.4,-21.256,-5.3,1.394,-0.095466,
0.405,-21.7455,-5.2,0.273,-0.098222,
0.41,-22.2252,-5.2,-1.786,-0.093244,
0.415,-22.7105,-5.2,0.412,-0.092266,
0.42,-23.1939,-5.2,0.169,-0.096088,
0.425,-23.6663,-5.2,2.951,-0.090044,
0.43,-24.143,-5.3,0.7,-0.0944,
0.435,-24.6178,-5.3,3.624,-0.091111,
0.44,-25.111,-5.3,-1.297,-0.100888,
0.445,-25.6017,-5.3,0.918,-0.096533,
0.45,-26.0985,-5.3,-0.645,-0.101422,
0.455,-26.5996,-5.3,0.537,-0.098755,
0.46,-27.1062,-5.3,-0.559,-0.103022,
0.465,-27.6049,-5.3,-0.009,-0.098222,
0.47,-28.1072,-5.3,1.728,-0.097688,
0.475,-28.6126,-5.3,1.123,-0.099822,
0.48,-29.1192,-5.2,-0.684,-0.102577,
0.485,-29.619,-5.3,-4.407,-0.100888,
0.49,-30.1207,-5.3,-1.194,-0.100355,
0.495,-30.631,-5.3,3.767,-0.099288,
0.5,-31.1565,-5.3,-0.579,-0.108533,
0.505,-31.6814,-5.3,1.32,-0.103111,
0.51,-32.2155,-5.2,-0.655,-0.107999,
0.515,-32.7422,-5.2,-3.511,-0.104711,
0.52,-33.2781,-5.2,1.052,-0.106844,
0.525,-33.8012,-5.2,-1.354,-0.102577,
0.53,-34.3273,-5.2,0.829,-0.103111,
0.535,-34.8473,-5.2,-0.23,-0.105244,
0.54,-35.3606,-5.2,0.051,-0.100355,
0.545,-35.8788,-5.2,0.756,-0.103644,
0.55,-36.3897,-5.2,-1.777,-0.103644,
0.555,-36.9042,-5.3,-2.459,-0.102577,
0.56,-37.4218,-5.3,1.977,-0.100355,
0.565,-37.9412,-5.2,0.017,-0.104177,
0.57,-38.4581,-5.2,0.162,-0.103555,
0.575,-38.9769,-5.1,2.958,-0.104711,
0.58,-39.4878,-5.2,0.864,-0.101422,
0.585,-39.9987,-5.2,-1.546,-0.103644,
0.59,-40.5004,-5.2,-2.496,-0.100888,
0.595,-40.9978,-5.1,1.58,-0.096,
0.6,-41.4934,-5.2,-2.332,-0.0976,
0.605,-41.9909,-5.1,0.896,-0.103111,
0.61,-42.4737,-5.2,-3.128,-0.099288,
0.615,-42.9558,-5.2,0.03,-0.0976,
0.62,-43.4404,-5.2,-0.385,-0.0992,
0.625,-43.9165,-5.2,-2.397,-0.096533,
0.63,-44.3889,-5.2,7.401,-0.089511,
0.635,-44.8656,-5.2,-1.629,-0.0944,
0.64,-45.3374,-5.2,-1.593,-0.096,
0.645,-45.797,-5.2,-1.126,-0.090577,
0.65,-46.2597,-5.1,0.324,-0.0928,
0.655,-46.7125,-5.2,-1.126,-0.091111,
0.66,-47.1624,-5.2,2.194,-0.086844,
0.665,-47.614,-5.2,-4.583,-0.093244,
0.67,-48.0559,-5.2,4.3,-0.085155,
0.675,-48.4954,-5.2,0.965,-0.087911,
0.68,-48.9391,-5.2,-3.331,-0.088977,
0.685,-49.3804,-5.2,-3.257,-0.087911,
0.69,-49.8119,-5.1,2.778,-0.083022,
0.695,-50.2483,-5.2,-2.24,-0.087377,
0.7,-50.6762,-5.2,-3.329,-0.084088,
0.705,-51.1059,-5.1,1.633,-0.087377,
0.71,-51.5215,-5.2,0.977,-0.080266,
0.715,-51.9402,-5.2,1.611,-0.081955,
0.72,-52.3504,-5.2,1.899,-0.080355,
0.725,-52.7471,-5.2,1.557,-0.077066,
0.73,-53.1481,-5.2,-3.872,-0.081955,
0.735,-53.5436,-5.2,1.494,-0.079733,
0.74,-53.9281,-5.2,-0.019,-0.078133,
0.745,-54.3084,-5.2,0.848,-0.0776,
0.75,-54.6856,-5.2,2.387,-0.073244,
0.755,-55.064,-5.2,-0.217,-0.077066,
0.76,-55.4363,-5.2,-2.242,-0.077066,
0.765,-55.8001,-5.2,1.892,-0.071111,
0.77,-56.1559,-5.2,1.346,-0.067822,
0.775,-56.5062,-5.2,1.277,-0.0672,
0.78,-56.8456,-5.2,-1.53,-0.068888,
0.785,-57.1758,-5.2,0.003,-0.063999,
0.79,-57.5011,-5.2,-0.625,-0.0656,
0.795,-57.8173,-5.2,2.53,-0.065688,
0.8,-58.1237,-5.2,1.286,-0.060266,
0.805,-58.4264,-5.2,2.161,-0.060711,
0.81,-58.7224,-5.2,3.497,-0.056355,
0.815,-59.0075,-5.2,-0.362,-0.058044,
0.82,-59.2772,-5.2,-1.308,-0.049866,
0.825,-59.5488,-5.2,0.171,-0.055822,
0.83,-59.8052,-5.2,0.585,-0.049333,
0.835,-60.0597,-5.2,0.226,-0.049866,
0.84,-60.3045,-5.2,3.191,-0.046666,
0.845,-60.5504,-5.2,0.374,-0.055288,
0.85,-60.7824,-5.2,0.888,-0.048355,
0.855,-61.0204,-5.2,2.588,-0.047733,
0.86,-61.2401,-5.2,1.542,-0.042844,
0.865,-61.4556,-5.2,0.876,-0.042311,
0.87,-61.6576,-5.2,2.078,-0.037422,
0.875,-61.8578,-5.2,0.949,-0.040177,
0.88,-62.0385,-5.2,0.921,-0.032622,
0.885,-62.2161,-5.2,0.369,-0.035822,
0.89,-62.3833,-5.2,-0.289,-0.032533,
0.895,-62.5493,-5.2,-2.09,-0.032533,
0.9,-62.708,-5.2,2.495,-0.031466,
0.905,-62.8582,-5.2,2.149,-0.028266,
0.91,-62.9992,-5.2,-2.136,-0.026044,
0.915,-63.1395,-5.3,-2.808,-0.026044,
0.92,-63.2781,-5.4,1.372,-0.029333,
0.925,-63.3922,-5.6,-4.629,-0.022755,
0.93,-63.4868,-6.5,1.115,-0.013511,
0.935,-63.5637,-6.5,-5.75,-0.019466,
0.94,-63.6309,-6.3,2.256,-0.013066,
0.945,-63.7053,-6.4,-3.156,-0.0168,
0.95,-63.7755,-6.5,6.502,-0.011377,
0.955,-63.8506,-6.6,-4.453,-0.020622,
0.96,-63.9159,-6.6,8.667,-0.009777,
0.965,-63.9812,-6.6,-0.415,-0.013511,
0.97,-64.0362,-6.6,4.692,-0.010311,
0.975,-64.0795,-6.6,1.112,-0.008711,
0.98,-64.107,-6.6,2.613,-0.006044,
0.985,-64.124,-6.5,-3.386,-0.004888,
0.99,-64.1295,-6.5,4.078,0.002222,
0.995,-64.1308,-6.5,0.544,0.001066,
1,-64.1362,-6.6,-1.2,-0.005955,
1.005,-64.1741,-6.6,-2.114,-0.013066,
1.01,-64.2974,-6.6,-5.013,-0.030399,
1.015,-64.5153,-6.6,-2.006,-0.052088,
1.02,-64.8284,-6.6,-1.162,-0.069422,
1.025,-65.2306,-6.7,-3.433,-0.087911,
1.03,-65.7073,-6.8,0.038,-0.100355,
1.035,-66.2481,-7.3,-1.89,-0.110666,
1.04,-66.8316,-7.4,-1.359,-0.117777,
1.045,-67.4468,-7.3,0.56,-0.122577,
1.05,-68.0748,-8.1,0.712,-0.127466,
1.055,-68.7053,-9.2,2.258,-0.123644,
1.06,-69.3187,-10.6,-0.318,-0.119288,
1.065,-69.8961,-12.1,-1.067,-0.112799,
1.07,-70.4131,-20.4,10.795,-0.091111,
1.075,-70.7079,-33.2,14.571,-0.030933,
1.08,-70.7164,-33.3,5.483,0.009777,
1.085,-70.7042,-31.5,-3.019,-0.004888,
1.09,-70.7128,-32.2,2.71,-0.002222,
1.095,-70.7287,-33.6,-2.325,-0.001688,
1.1,-70.739,-34.2,-8.117,-0.005422,
1.105,-70.7525,-35.5,-1.14,-0.003822,
1.11,-70.7824,-37.5,4.577,-0.002222,
1.115,-70.7934,-37.9,-2.7,0,
1.12,-70.7921,-37.6,-2.03,0.001688,
1.125,-70.7934,-37.2,-1.419,0.000533,
1.13,-70.7946,-36.8,-1.085,-0.004355,
1.135,-70.7934,-36.7,-1.348,0,
1.14,-70.794,-36.9,-0.156,-0.001155,
1.145,-70.7946,-37.1,0.262,-0.001066,
1.15,-70.7946,-37.1,0.301,0.000533,
1.155,-70.7934,-36.8,-0.823,0,
1.16,-70.7952,-36.7,0.31,-0.000533,
1.165,-70.7934,-36.7,-3.793,0.0016,
1.17,-70.7976,-36.8,-1.405,0,
1.175,-70.794,-36.8,2.525,0.000533,
1.18,-70.7934,-36.8,4.019,0.0048,
1.185,-70.7976,-36.6,1.374,0.000533,
1.19,-70.8031,-36.6,-3.626,-0.006488,
1.195,-70.8019,-36.6,-0.453,-0.002133,
1.2,-70.7988,-36.8,-2.238,-0.0016,
1.205,-70.7995,-36.9,-2.163,-0.003822,
1.21,-70.8025,-36.9,-5.12,-0.003822,
1.215,-70.8019,-36.8,2.188,0.001066,
1.22,-70.8013,-36.6,-1.043,-0.001066,
1.225,-70.7988,-36.6,-2.045,0,
1.23,-70.7995,-36.6,4.669,0.004888,
1.235,-70.8007,-36.8,4.606,0.002133,
1.24,-70.805,-36.8,-4.586,-0.001688,
1.245,-70.805,-36.9,0.512,0,
1.25,-70.805,-36.9,-0.794,-0.003822,
1.255,-70.8025,-36.8,-0.313,0.002222,
1.26,-70.805,-36.7,-1.028,-0.001688,
1.265,-70.8031,-36.8,0.629,0.002222,
1.27,-70.805,-36.8,-3.729,-0.001688,
1.275,-70.8062,-36.9,-0.179,0,
1.28,-70.8056,-37,0.773,0.003733,
1.285,-70.805,-37,-0.865,0.001066,
1.29,-70.8056,-37,2.806,0.000533,
1.295,-70.805,-36.9,3.17,0.000533,
1.3,-70.8068,-36.9,1.717,0,
1.305,-70.8092,-36.9,2.592,-0.000533,
1.31,-70.8086,-37,-1.611,0.0016,
1.315,-70.8123,-37.1,-4.318,-0.002222,
1.32,-70.8104,-37.1,1.139,0.000622,
1.325,-70.8111,-37.1,-0.749,-0.001155,
1.33,-70.8117,-37.1,-1.621,-0.000533,
1.335,-70.8123,-37.1,2.382,0.002666,
1.34,-70.8135,-37.1,0.612,-0.003288,
1.345,-70.8123,-37.1,4.046,0.0016,
1.35,-70.8117,-37.1,-0.208,0.004888,
1.355,-70.8135,-37.1,2.501,0.003288,
1.36,-70.8129,-37.1,2.77,0.0032,
1.365,-70.8141,-37.1,-4.238,-0.002666,
1.37,-70.8165,-37.2,1.119,-0.001066,
1.375,-70.8159,-37.1,1.472,0.001155,
1.38,-70.8123,-37.3,3.683,0.003733,
1.385,-70.8172,-37.3,0.927,0,
1.39,-70.8172,-37.3,1.294,0,
1.395,-70.8159,-37.3,2.088,0.001155,
1.4,-70.8159,-37.2,-0.627,0.001155,
1.405,-70.8165,-37.2,0.654,0,
1.41,-70.8165,-37.3,-1.289,0,
1.415,-70.8172,-37.3,-0.122,-0.000622,
1.42,-70.8172,-37.3,-2.317,-0.001155,
1.425,-70.8172,-37.3,0.372,-0.000622,
1.43,-70.8172,-37.3,-0.663,-0.000622,
1.435,-70.8178,-37.3,-1.76,-0.001155,
1.44,-70.8172,-37.3,-3.761,-0.003288,
1.445,-70.8178,-37.3,-3.725,-0.001155,
1.45,-70.8172,-37.4,-1.684,-0.000622,
1.455,-70.8172,-37.4,-3.395,-0.000622,
1.46,-70.8251,-37.4,-1.935,-0.007022,
1.465,-70.8184,-37.4,-1.084,0.000533,
1.47,-70.822,-37.3,-2.257,-0.0032,
1.475,-70.8196,-37.3,1.379,0.000533,
1.48,-70.819,-37.3,0.803,0.000533,
1.485,-70.8196,-37.3,-1.026,-0.000533,
1.49,-70.819,-37.3,-0.955,0,
1.495,-70.819,-37.3,-2.081,0,
1.5,-70.819,-37.3,0.002,-0.000533,
1.505,-70.819,-37.3,0.28,0,
1.51,-70.8196,-37.4,1.585,-0.000533,
1.515,-70.8184,-37.3,0.285,0.0016,
1.52,-70.819,-37.4,-1.07,0,
1.525,-70.819,-37.4,2.115,0,
1.53,-70.819,-37.4,-1.308,-0.000533,
1.535,-70.8196,-37.3,3.015,0.002133,
1.54,-70.8196,-37.3,0.19,0.001066,
1.545,-70.819,-37.3,-0.308,0,
1.55,-70.819,-37.3,-2.073,0.000533,
1.555,-70.8208,-37.3,1.98,0.002222,
1.56,-70.8208,-37.3,-1.242,-0.000533,
1.565,-70.8202,-37.4,0.817,0.000533,
1.57,-70.8202,-37.4,2.46,0.000533,
1.575,-70.8202,-37.3,2.206,-0.001066,
1.58,-70.8202,-37.4,-0.148,-0.001066,
1.585,-70.8184,-37.4,-0.9,0.000533,
1.59,-70.8202,-37.4,-0.822,0.000533,
1.595,-70.8214,-37.4,1.613,-0.0016,
1.6,-70.8111,-37.4,1.105,0.008088,
1.605,-70.8043,-36.7,0.051,0.002755,
1.61,-70.7775,-34.9,-0.44,0.007555,
1.615,-70.7152,-30.2,-1.719,0.013066,
1.62,-70.6115,-24.6,-0.2,0.020088,
1.625,-70.4876,-19.2,0.896,0.027111,
1.63,-70.3331,-15.1,1.28,0.033688,
1.635,-70.111,-13,5.877,0.053155,
1.64,-69.7619,-12.2,8.803,0.081866,
1.645,-69.251,-11.3,4.967,0.116088,
1.65,-68.6236,-10.4,3.528,0.136177,
1.655,-67.9149,-9.6,2.09,0.142755,
1.66,-67.1789,-8.6,0.164,0.145866,
1.665,-66.4733,-7.4,-1.399,0.135644,
1.67,-65.8373,-6.7,-5.409,0.119911,
1.675,-65.3222,-6.2,-4.863,0.091644,
1.68,-64.9303,-6.1,-3.543,0.068355,
1.685,-64.6587,-6.4,-6.164,0.042844,
1.69,-64.4903,-6.7,-6.28,0.023288,
1.695,-64.4213,-6.8,-5.34,0.007022,
1.7,-64.4188,-6.6,0.096,0.001155,
1.705,-64.4201,-6.5,0.505,0,
1.71,-64.4213,-6.4,-2.679,-0.002755,
1.715,-64.4188,-6.4,-2.489,-0.000533,
1.72,-64.4219,-6.4,-1.039,-0.001066,
1.725,-64.4213,-6.4,1.708,-0.000533,
1.73,-64.4219,-6.5,3.574,0,
1.735,-64.4182,-6.4,0.974,0.002222,
1.74,-64.4195,-6.4,1.444,0,
1.745,-64.4195,-6.4,1.3,0.002133,
1.75,-64.4182,-6.5,0.618,0.001155,
1.755,-64.4195,-6.5,-0.485,0,
1.76,-64.4207,-6.4,-0.686,0.001066,
1.765,-64.4195,-6.5,-0.074,0,
1.77,-64.4182,-6.5,-2.016,0,
1.775,-64.4195,-6.4,2.412,0,
1.78,-64.4188,-6.4,-2.611,0.001688,
1.785,-64.4201,-6.4,-0.039,-0.000533,
1.79,-64.4213,-6.5,-1.323,-0.002755,
1.795,-64.4201,-6.5,-1.713,-0.001155,
1.8,-64.4188,-6.4,-0.558,0.000622,
1.805,-64.4207,-6.5,0.612,0,
1.81,-64.4207,-6.5,-3.301,-0.002222,
1.815,-64.4207,-6.4,-0.432,0,
1.82,-64.4195,-6.4,-3.344,-0.001155,
1.825,-64.4195,-6.4,1.372,-0.001155,
1.83,-64.4182,-6.4,-2.037,0.001155,
1.835,-64.4231,-6.5,-1.141,-0.0032,
1.84,-64.4231,-6.4,-6.806,-0.004355,
1.845,-64.4207,-6.5,-1.102,-0.001066,
1.85,-64.4182,-6.4,2.039,0.001155,
1.855,-64.4195,-6.5,-0.501,-0.001155,
1.86,-64.4182,-6.4,3.243,0.003288,
1.865,-64.4195,-6.4,-2.538,-0.001155,
1.87,-64.4207,-6.4,-1.418,-0.001066,
1.875,-64.4195,-6.5,-0.424,-0.000622,
1.88,-64.4195,-6.4,0.425,0.001066,
1.885,-64.4182,-6.4,-3.266,-0.001066,
1.89,-64.4182,-6.4,-1.459,0,
1.895,-64.4219,-6.4,-1.386,-0.002133,
1.9,-64.417,-6.4,0.673,0.001066,
1.905,-64.4207,-6.4,-1.656,-0.002222,
1.91,-64.4182,-6.4,-2.168,0.001155,
1.915,-64.4182,-6.4,1.358,0.002222,
1.92,-64.4207,-6.4,1.752,0,
1.925,-64.4207,-6.4,2.14,-0.001066,
1.93,-64.4195,-6.5,-2.588,-0.001155,
1.935,-64.4249,-6.5,-0.489,-0.0016,
1.94,-64.4182,-6.4,1.2,0.001155,
1.945,-64.4225,-6.5,0.338,-0.002666,
1.95,-64.4207,-6.5,-1.896,0,
1.955,-64.4182,-6.5,2.094,0.001155,
1.96,-64.4182,-6.5,-2.407,0,
1.965,-64.4219,-6.5,-3.026,-0.003288,
1.97,-64.4201,-6.4,2.408,-0.000533,
1.975,-64.4207,-6.5,-3.651,-0.003288,
1.98,-64.4195,-6.4,0.622,-0.001155,
1.985,-64.4207,-6.4,-3.012,-0.001066,
1.99,-64.4182,-6.4,1.051,0.001155,
1.995,-64.4195,-6.4,-0.127,0,
2,-64.4195,-6.4,0.351,-0.001155,
2.005,-64.4182,-6.5,1.494,0,
2.01,-64.4195,-6.5,0.657,-0.000622,
2.015,-64.4207,-6.4,-0.82,-0.001688,
2.02,-64.4237,-6.4,0.935,-0.003733,
2.025,-64.4219,-6.4,2.476,-0.001066,
2.03,-64.4207,-6.4,-1.815,-0.002755,
2.035,-64.4182,-6.5,0.794,0,
2.04,-64.4219,-6.4,1.082,-0.001066,
2.045,-64.4195,-6.4,1.646,0.001066,
2.05,-64.4219,-6.5,1.694,-0.003288,
2.055,-64.4182,-6.5,-1.249,0,
2.06,-64.4195,-6.4,-0.919,-0.001155,
2.065,-64.4207,-6.5,1.822,0,
2.07,-64.4207,-6.4,-1.754,-0.002222,
2.075,-64.4188,-6.5,2.578,0.002755,
2.08,-64.4219,-6.4,1.569,-0.001066,
2.085,-64.4207,-6.4,0.869,0.000533,
2.09,-64.4195,-6.4,-0.649,0,
2.095,-64.4182,-6.5,3.723,0,
2.1,-64.4182,-6.4,0.448,0.000533,
2.105,-64.4195,-6.5,1.477,0.002133,
2.11,-64.4213,-6.4,-0.274,-0.0016,
2.115,-64.4182,-6.4,-3.617,0,
2.12,-64.4182,-6.5,-0.489,0,
2.125,-64.4219,-6.5,-1.046,-0.001066,
2.13,-64.4207,-6.4,-0.11,-0.002222,
2.135,-64.4201,-6.5,0.12,-0.001688,
2.14,-64.4213,-6.4,-1.879,-0.002755,
2.145,-64.4207,-6.5,1.869,0.002133,
2.15,-64.4188,-6.5,0.654,0.000622,
2.155,-64.4182,-6.5,0.261,0.003288,
2.16,-64.4219,-6.4,-1.666,-0.003288,
2.165,-64.4207,-6.4,-1.364,-0.002222,
2.17,-64.4219,-6.5,-3.354,-0.002133,
2.175,-64.4207,-6.4,0.137,-0.001066,
2.18,-64.4213,-6.5,-0.576,-0.002755,
2.185,-64.4231,-6.4,-0.509,-0.004355,
2.19,-64.4182,-6.5,2.287,0.001155,
2.195,-64.4207,-6.4,-0.079,-0.001066,
2.2,-64.4249,-6.4,-1.331,-0.005955,
2.205,-64.4408,-6.5,-4.898,-0.008088,
2.21,-64.486,-6.6,-1.92,-0.011911,
2.215,-64.6319,-6.7,-4.32,-0.036355,
2.22,-64.8821,-6.8,-2.435,-0.059644,
2.225,-65.2416,-7,-0.111,-0.079733,
2.23,-65.7024,-7.3,1.862,-0.097688,
2.235,-66.2487,-7.2,-2.293,-0.113422,
2.24,-66.8499,-7.3,-2.768,-0.126399,
2.245,-67.4798,-8.1,-1.281,-0.128088,
2.25,-68.1194,-9.2,0.412,-0.130222,
2.255,-68.7493,-10.6,1.679,-0.123199,
2.26,-69.3529,-12,1.034,-0.115022,
2.265,-69.9212,-13.4,1.523,-0.109066,
2.27,-70.429,-21.1,8.924,-0.090666,
2.275,-70.7256,-34.1,15.15,-0.0336,
2.28,-70.7335,-34.3,4.735,0.008711,
2.285,-70.7146,-32.4,-1.755,0.001066,
2.29,-70.7299,-33.3,0.183,-0.002755,
2.295,-70.7464,-34.6,-0.847,-0.003822,
2.3,-70.7537,-35.2,-5.139,-0.006488,
2.305,-70.7653,-36.5,-5.724,-0.005955,
2.31,-70.794,-38.3,3.004,-0.000533,
2.315,-70.8068,-38.7,4.184,0,
2.32,-70.8062,-38.3,1.131,-0.001066,
2.325,-70.8062,-37.9,1.65,-0.003288,
2.33,-70.8068,-37.5,0.931,-0.004355,
2.335,-70.8068,-37.5,2.162,0,
2.34,-70.8068,-37.7,-0.089,-0.000533,
2.345,-70.8056,-37.9,0.554,0.000533,
2.35,-70.8062,-37.9,-0.823,0,
2.355,-70.8062,-37.7,1.114,0.000533,
2.36,-70.8068,-37.5,-0.747,-0.0016,
2.365,-70.8062,-37.4,0.062,0.000533,
2.37,-70.8062,-37.5,-0.027,0.000533,
2.375,-70.8062,-37.6,-0.033,0.000533,
2.38,-70.8074,-37.5,-2.228,-0.000533,
2.385,-70.8074,-37.3,-1.587,-0.000533,
2.39,-70.8074,-37.3,-0.799,0.002133,
2.395,-70.8123,-37.4,-5.547,-0.004888,
2.4,-70.8074,-37.5,4.394,0,
2.405,-70.8062,-37.5,-1.949,0.001066,
2.41,-70.8098,-37.6,-0.378,-0.0016,
2.415,-70.8068,-37.5,-2.037,0.000533,
2.42,-70.8098,-37.4,-0.27,0.001688,
2.425,-70.8123,-37.3,2.927,-0.000533,
2.43,-70.8135,-37.3,-1.58,-0.0016,
2.435,-70.8117,-37.3,4.537,0.001066,
2.44,-70.8135,-37.4,4.769,-0.000533,
2.445,-70.8129,-37.5,-2.023,-0.001066,
2.45,-70.8123,-37.5,-1.69,0,
2.455,-70.8147,-37.4,0.443,-0.001066,
2.46,-70.8117,-37.4,1.682,0.0016,
2.465,-70.8172,-37.4,-1.02,-0.002755,
2.47,-70.8147,-37.4,4.312,0.000533,
2.475,-70.8165,-37.4,-1.968,-0.002133,
2.48,-70.8178,-37.5,-3.179,-0.004888,
2.485,-70.8141,-37.6,0.961,0.000533,
2.49,-70.8159,-37.4,-3.513,-0.0016,
2.495,-70.8184,-37.4,0.499,0,
2.5,-70.8178,-37.3,-0.235,-0.001155,
2.505,-70.8172,-37.4,-2.482,0.001066,
2.51,-70.8184,-37.4,-2.321,-0.000533,
2.515,-70.8184,-37.4,-0.472,0.000533,
2.52,-70.8184,-37.5,-2.113,-0.001066,
2.525,-70.8159,-37.5,2.039,0.001155,
2.53,-70.8184,-37.5,-1.432,0,
2.535,-70.8184,-37.5,0.804,0.002133,
2.54,-70.8184,-37.6,0.202,0,
2.545,-70.8184,-37.5,-0.284,0,
2.55,-70.819,-37.5,0.737,0,
2.555,-70.819,-37.5,0.107,-0.000533,
2.56,-70.8184,-37.5,0.732,0.000533,
2.565,-70.819,-37.5,0.22,0,
2.57,-70.8208,-37.5,0.046,-0.0016,
2.575,-70.8196,-37.5,-0.822,-0.001066,
2.58,-70.819,-37.5,-1.588,0.000533,
2.585,-70.8184,-37.6,1.303,0.000533,
2.59,-70.8202,-37.6,-1.352,-0.0016,
2.595,-70.8184,-37.5,0.227,0,
2.6,-70.819,-37.6,-2.392,0,
2.605,-70.8202,-37.6,-3.823,-0.001066,
2.61,-70.8196,-37.6,0.544,0.000533,
2.615,-70.8184,-37.6,0.584,0.000533,
2.62,-70.8245,-37.6,-3.319,-0.004888,
2.625,-70.822,-37.6,1.178,-0.000533,
2.63,-70.819,-37.6,0.166,0.003822,
2.635,-70.8202,-37.6,2.411,0.000533,
2.64,-70.8196,-37.5,1.425,0,
2.645,-70.8196,-37.6,-1.527,0.0016,
2.65,-70.819,-37.6,3.095,0.002666,
2.655,-70.8214,-37.6,-2.142,0.001155,
2.66,-70.8227,-37.6,-6.043,-0.003822,
2.665,-70.819,-37.6,1.719,0.003288,
2.67,-70.8202,-37.6,3.918,0.001066,
2.675,-70.8208,-37.6,1.134,0.000533,
2.68,-70.8214,-37.6,0.17,-0.0016,
2.685,-70.819,-37.6,-4.051,-0.000533,
2.69,-70.8196,-37.6,4.122,-0.001066,
2.695,-70.8227,-37.6,-6.1,-0.001688,
2.7,-70.8239,-37.6,-3.538,-0.004355,
2.705,-70.8214,-37.6,2.576,0.001688,
2.71,-70.8202,-37.6,5.601,0.002755,
2.715,-70.8196,-37.6,3.236,0.002755,
2.72,-70.8251,-37.6,-5.649,-0.0016,
2.725,-70.8263,-37.6,1.608,-0.001066,
2.73,-70.822,-37.7,-0.594,0.000622,
2.735,-70.8251,-37.6,3.484,-0.0016,
2.74,-70.8233,-37.7,0.16,0.000533,
2.745,-70.8245,-37.6,0.093,-0.000533,
2.75,-70.822,-37.5,-3.917,-0.002133,
2.755,-70.8196,-37.6,-1.438,0,
2.76,-70.8245,-37.6,3.612,0.0016,
2.765,-70.8245,-37.6,2.475,0.002666,
2.77,-70.8227,-37.6,-0.628,0.001066,
2.775,-70.8245,-37.6,1.371,0.000533,
2.78,-70.8257,-37.6,0.581,-0.001066,
2.785,-70.8251,-37.7,-3.199,-0.002755,
2.79,-70.8233,-37.7,0.917,-0.003822,
2.795,-70.822,-37.7,1.775,0.002222,
2.8,-70.819,-37.6,1.297,0.004888,
2.805,-70.8092,-36.9,1.504,-0.0016,
2.81,-70.7848,-35.2,1.176,0.010844,
2.815,-70.7171,-30.6,-2.313,0.016266,
2.82,-70.6182,-24.8,0.236,0.020088,
2.825,-70.4906,-19.5,1.419,0.027111,
2.83,-70.3368,-15.4,1.794,0.036888,
2.835,-70.114,-13.4,6.491,0.052088,
2.84,-69.7631,-12.6,6.384,0.083555,
2.845,-69.2602,-11.6,4.16,0.108444,
2.85,-68.6223,-10.8,4.491,0.135111,
2.855,-67.9125,-10,0.166,0.145422,
2.86,-67.1752,-8.9,-1.26,0.145955,
2.865,-66.469,-7.9,-1.44,0.137777,
2.87,-65.8422,-7,-4.221,0.115022,
2.875,-65.3246,-6.4,-5,0.091733,
2.88,-64.9303,-6.2,-4.575,0.067288,
2.885,-64.6612,-6.3,-3.066,0.043377,
2.89,-64.4909,-6.7,-1.719,0.027644,
2.895,-64.4219,-6.8,-4.292,0.006488,
2.9,-64.4195,-6.7,5.43,0.0032,
2.905,-64.4237,-6.7,-2.964,0.001066,
2.91,-64.4237,-6.6,-1.226,0.001688,
2.915,-64.4256,-6.5,-0.835,-0.001688,
2.92,-64.4231,-6.5,-0.615,0,
2.925,-64.4249,-6.4,0.19,-0.000533,
2.93,-64.4249,-6.4,-4.276,-0.001066,
2.935,-64.4237,-6.4,-4.007,-0.0032,
2.94,-64.4231,-6.4,1.738,0.002755,
2.945,-64.4219,-6.4,2.34,0.002666,
2.95,-64.4249,-6.5,0.26,0.000622,
2.955,-64.4237,-6.4,0.407,-0.0016,
2.96,-64.428,-6.4,-1.532,-0.003288,
2.965,-64.4201,-6.4,2.166,0.002666,
2.97,-64.4231,-6.4,1.039,0.000533,
2.975,-64.4237,-6.4,1.967,-0.000533,
2.98,-64.4249,-6.5,-3.01,-0.001066,
2.985,-64.4249,-6.4,-0.761,0,
2.99,-64.4256,-6.4,-3.491,-0.001688,
2.995,-64.4237,-6.5,2.302,0,
3,-64.4286,-6.4,3.223,-0.004888,
3.005,-64.4237,-6.4,0.776,0.001066,
3.01,-64.4231,-6.5,-0.698,0.001066,
3.015,-64.4249,-6.5,4.146,0.001155,
3.02,-64.4237,-6.5,-4.148,0.001066,
3.025,-64.4286,-6.5,1.03,-0.0016,
3.03,-64.4249,-6.4,-6.792,-0.002666,
3.035,-64.4249,-6.5,-2.197,-0.0016,
3.04,-64.4243,-6.5,-6.74,-0.0032,
3.045,-64.4249,-6.5,-0.931,-0.0016,
3.05,-64.4274,-6.4,1.244,-0.001066,
3.055,-64.4249,-6.4,-0.709,-0.0016,
3.06,-64.4237,-6.4,0.898,0.000533,
3.065,-64.4213,-6.5,-1.047,0.0016,
3.07,-64.4237,-6.5,1.943,-0.001066,
3.075,-64.4225,-6.4,-0.2,0.001066,
3.08,-64.4225,-6.5,-1.862,-0.001066,
3.085,-64.4231,-6.4,2.249,-0.0016,
3.09,-64.4274,-6.4,0.208,-0.003822,
3.095,-64.4286,-6.4,-4.935,-0.004355,
3.1,-64.4274,-6.4,1.307,-0.004355,
3.105,-64.4243,-6.5,-1.066,0,
3.11,-64.4213,-6.5,3.281,0.002666,
3.115,-64.4249,-6.5,-3.723,-0.000533,
3.12,-64.4207,-6.4,-3.336,0.003733,
3.125,-64.4243,-6.5,1.204,-0.000533,
3.13,-64.4274,-6.4,-0.56,-0.004888,
3.135,-64.4237,-6.4,0.582,0.000533,
3.14,-64.4256,-6.4,-0.488,-0.001688,
3.145,-64.4237,-6.4,1.356,-0.002133,
3.15,-64.4249,-6.5,0.881,-0.0016,
3.155,-64.4237,-6.5,1.148,-0.002666,
3.16,-64.4268,-6.4,-2.418,-0.004355,
3.165,-64.4237,-6.5,-7.337,-0.003733,
3.17,-64.4219,-6.5,0.634,0.000533,
3.175,-64.4213,-6.5,1.052,0.001066,
3.18,-64.4237,-6.5,-1.082,-0.000533,
3.185,-64.4249,-6.4,-4.074,-0.001066,
3.19,-64.4219,-6.4,0.636,0.0016,
3.195,-64.4256,-6.4,-0.857,-0.002222,
3.2,-64.4207,-6.5,3.526,0.004888,
3.205,-64.4262,-6.4,-0.074,-0.002222,
3.21,-64.4207,-6.4,-0.101,0.0032,
3.215,-64.4237,-6.4,-3.811,-0.003733,
3.22,-64.4237,-6.5,-0.962,-0.000533,
3.225,-64.4219,-6.4,0.198,0,
3.23,-64.4219,-6.5,2.756,0.0016,
3.235,-64.4225,-6.4,-2.305,0.002133,
3.24,-64.4249,-6.5,-1.211,0.002222,
3.245,-64.4219,-6.4,-1.186,0.002133,
3.25,-64.4243,-6.5,-0.614,-0.001066,
3.255,-64.4225,-6.4,0.395,0.000533,
3.26,-64.4213,-6.4,-0.967,-0.000533,
3.265,-64.4225,-6.5,1.595,0.0016,
3.27,-64.4256,-6.4,-2.019,-0.001688,
3.275,-64.4256,-6.5,-0.911,-0.003288,
3.28,-64.4262,-6.4,2.197,-0.002755,
3.285,-64.4237,-6.4,-0.493,0,
3.29,-64.4225,-6.5,-0.389,0.003822,
3.295,-64.4225,-6.5,-2.704,-0.002133,
3.3,-64.4237,-6.5,-1.703,-0.002666,
3.305,-64.4237,-6.4,0.729,0,
3.31,-64.4225,-6.4,1.002,0.001066,
3.315,-64.4237,-6.4,0.938,-0.0016,
3.32,-64.4237,-6.4,-1.705,0,
3.325,-64.4231,-6.4,0.448,-0.000533,
3.33,-64.4213,-6.4,1.845,0.0032,
3.335,-64.4225,-6.5,-0.427,0.001066,
3.34,-64.4262,-6.4,-3.054,-0.002755,
3.345,-64.4243,-6.4,-3.642,-0.001066,
3.35,-64.4256,-6.4,-2.655,-0.002755,
3.355,-64.4225,-6.5,7.586,0.002133,
3.36,-64.4231,-6.4,2.12,-0.001066,
3.365,-64.4225,-6.5,2.455,0,
3.37,-64.4237,-6.5,2.83,0.002222,
3.375,-64.4249,-6.4,-1.983,-0.0016,
3.38,-64.4243,-6.4,-0.472,-0.0016,
3.385,-64.4262,-6.4,-2.234,-0.003822,
3.39,-64.4219,-6.4,-4.307,0.001066,
3.395,-64.4231,-6.4,-2.496,-0.000533,
3.4,-64.4304,-6.4,-5.066,-0.007555,
3.405,-64.4384,-6.5,-2.644,-0.004888,
3.41,-64.4903,-6.7,-0.32,-0.014133,
3.415,-64.6325,-6.8,-4.307,-0.036355,
3.42,-64.8827,-7,-7.202,-0.061333,
3.425,-65.2416,-7.2,-3.258,-0.0792,
3.43,-65.7061,-7.1,-4.392,-0.100355,
3.435,-66.2548,-7.2,-5.358,-0.118844,
3.44,-66.8523,-7.5,-2.573,-0.123111,
3.445,-67.4834,-8.4,0.665,-0.127466,
3.45,-68.1225,-9.6,0.324,-0.128088,
3.455,-68.7517,-11,2.694,-0.123644,
3.46,-69.3578,-12.4,3.03,-0.117155,
3.465,-69.9212,-13.8,2.729,-0.108533,
3.47,-70.4332,-21.4,5.013,-0.095466,
3.475,-70.7287,-34.5,14.539,-0.036888,
3.48,-70.7403,-34.8,2.09,0.004266,
3.485,-70.7189,-32.8,-1.511,-0.000533,
3.49,-70.7329,-33.5,-4.842,-0.004888,
3.495,-70.7531,-34.9,-2.971,-0.004355,
3.5,-70.758,-35.5,-4.785,-0.004888,
3.505,-70.7714,-36.8,-0.059,-0.004355,
3.51,-70.7946,-38.5,1.565,-0.000533,
3.515,-70.8068,-39,-1.733,0,
3.52,-70.8062,-38.6,-0.116,0.000533,
3.525,-70.8074,-38.2,-0.248,-0.001066,
3.53,-70.8068,-37.9,2.748,0.002666,
3.535,-70.8062,-37.8,-0.458,0,
3.54,-70.8098,-38.1,1.214,-0.002666,
3.545,-70.8129,-38.3,-2.72,-0.005422,
3.55,-70.8068,-38.2,-1.443,0.000533,
3.555,-70.8098,-38,-1.026,0,
3.56,-70.8129,-37.8,-1.85,0,
3.565,-70.808,-37.7,1.99,0.003822,
3.57,-70.8098,-37.8,1.855,0.005955,
3.575,-70.8153,-37.8,-6.444,-0.002133,
3.58,-70.8074,-37.7,0.546,0.004888,
3.585,-70.8135,-37.7,1.048,0.002666,
3.59,-70.8147,-37.6,-2.111,-0.004355,
3.595,-70.8153,-37.7,-0.159,-0.001066,
3.6,-70.8178,-37.8,-3.574,-0.004355,
3.605,-70.8129,-37.9,2.572,0.0032,
3.61,-70.8159,-37.9,-2.714,-0.0032,
3.615,-70.8172,-37.8,2.527,0.000533,
3.62,-70.8129,-37.7,-2.085,0.002666,
3.625,-70.8135,-37.5,0.08,0.004355,
3.63,-70.8165,-37.5,-5.352,-0.002133,
3.635,-70.8172,-37.6,-1.018,-0.000622,
3.64,-70.8172,-37.7,-0.83,0.000533,
3.645,-70.8172,-37.8,-0.067,0.001066,
3.65,-70.8178,-37.8,-1.025,-0.002755,
3.655,-70.8184,-37.7,-1.303,-0.003288,
3.66,-70.8172,-37.7,0.381,0.000533,
3.665,-70.8184,-37.7,-2.613,-0.001688,
3.67,-70.819,-37.7,1.878,0,
3.675,-70.819,-37.8,0.833,-0.000533,
3.68,-70.8184,-37.8,0.715,0,
3.685,-70.8184,-37.8,-2.344,0.000533,
3.69,-70.8184,-37.7,0.151,0.000533,
3.695,-70.819,-37.6,-0.125,-0.000533,
3.7,-70.8196,-37.7,-1.501,-0.001066,
3.705,-70.8202,-37.7,1.256,-0.000533,
3.71,-70.8184,-37.7,-0.933,0.0016,
3.715,-70.8184,-37.8,-0.877,0.000533,
3.72,-70.8227,-37.8,-1.817,-0.003822,
3.725,-70.8202,-37.8,0.246,0.000533,
3.73,-70.819,-37.8,0.875,0.000533,
3.735,-70.8233,-37.8,-3.389,-0.003288,
3.74,-70.8227,-37.9,2.358,-0.003288,
3.745,-70.8202,-37.8,-0.841,0.000533,
3.75,-70.8239,-37.8,-1.564,-0.001688,
3.755,-70.8214,-37.8,-2.907,-0.001066,
3.76,-70.8233,-37.7,-3.633,-0.002222,
3.765,-70.8202,-37.8,-2.9,-0.001066,
3.77,-70.8196,-37.8,1.805,-0.000533,
3.775,-70.8196,-37.8,-4.038,0.001066,
3.78,-70.8239,-37.8,-0.963,-0.002755,
3.785,-70.8214,-37.8,-2.559,-0.002133,
3.79,-70.8239,-37.8,0.723,-0.002222,
3.795,-70.819,-37.8,-1.104,0.0016,
3.8,-70.8202,-37.8,1.754,0.001066,
3.805,-70.8227,-37.8,-3.288,-0.003288,
3.81,-70.822,-37.8,-1.146,-0.0016,
3.815,-70.822,-37.9,-3.585,-0.001066,
3.82,-70.8227,-37.8,-2.061,-0.003822,
3.825,-70.8239,-37.8,0.755,-0.001066,
3.83,-70.819,-37.8,3.112,0.002133,
3.835,-70.8239,-37.8,1.078,0.000533,
3.84,-70.8239,-37.7,2.041,0.001066,
3.845,-70.8239,-37.8,-0.954,-0.001066,
3.85,-70.8245,-37.8,-1.163,0.0016,
3.855,-70.8251,-37.8,-1.415,-0.002133,
3.86,-70.8251,-37.9,-1.038,-0.000533,
3.865,-70.8245,-37.8,1.817,0.0016,
3.87,-70.8239,-37.8,-1.414,-0.002222,
3.875,-70.8233,-37.8,-0.35,0.004266,
3.88,-70.8275,-37.8,-0.48,-0.001066,
3.885,-70.8245,-37.8,-0.928,-0.000533,
3.89,-70.8239,-37.8,-1.507,0,
3.895,-70.8227,-37.8,0.988,0.001066,
3.9,-70.8245,-37.8,0.398,-0.001066,
3.905,-70.8227,-37.8,-7.346,-0.001688,
3.91,-70.8288,-37.8,-3.027,-0.004888,
3.915,-70.8263,-37.8,-5.203,-0.002133,
3.92,-70.8288,-37.9,3.753,-0.003822,
3.925,-70.8251,-37.9,1.407,0.002666,
3.93,-70.822,-37.9,0.999,0.003822,
3.935,-70.8239,-37.9,2.221,0.004355,
3.94,-70.8233,-37.8,10.691,0.005422,
3.945,-70.8196,-37.8,-1.767,0.0016,
3.95,-70.8275,-37.7,-4.69,-0.003733,
3.955,-70.8275,-37.8,2.837,0,
3.96,-70.8263,-37.8,1.221,0.000533,
3.965,-70.8233,-37.8,0.082,0.0016,
3.97,-70.8275,-37.8,-8.085,-0.005955,
3.975,-70.8275,-37.8,-1.425,-0.002133,
3.98,-70.8245,-37.9,-0.149,0.004888,
3.985,-70.8288,-37.9,2.639,-0.000622,
3.99,-70.8263,-37.9,0.198,0.002222,
3.995,-70.8281,-37.9,0.661,-0.002133,
4,-70.8245,-37.9,3.394,0.0016,
4.005,-70.8147,-37.1,1.749,-0.0016,
4.01,-70.786,-35.4,0.388,0.007111,
4.015,-70.7177,-30.8,0.279,0.016266,
4.02,-70.62,-25,-0.424,0.021155,
4.025,-70.4986,-19.7,-0.905,0.021688,
4.03,-70.3417,-15.5,2.812,0.033066,
4.035,-70.1189,-13.6,6.687,0.053155,
4.04,-69.768,-12.8,4.443,0.080266,
4.045,-69.2595,-11.8,5.019,0.111822,
4.05,-68.6223,-11,4.236,0.136177,
4.055,-67.9143,-10.2,0.498,0.145422,
4.06,-67.1758,-9.2,-3.13,0.145422,
4.065,-66.4715,-8.1,-0.687,0.136177,
4.07,-65.8404,-7.3,-4.169,0.116622,
4.075,-65.324,-6.5,-0.966,0.094933,
4.08,-64.9303,-6.2,-4.823,0.069422,
4.085,-64.6599,-6.3,-4.191,0.043466,
4.09,-64.4896,-6.6,-2.267,0.025511,
4.095,-64.417,-6.7,-0.647,0.010844,
4.1,-64.4188,-6.7,7.224,0.002755,
4.105,-64.4207,-6.8,-2.03,-0.000533,
4.11,-64.4225,-6.6,0.68,0,
4.115,-64.4207,-6.6,3.208,0.000533,
4.12,-64.4231,-6.5,-3.596,-0.004355,
4.125,-64.4219,-6.4,-0.937,-0.0016,
4.13,-64.4182,-6.4,0.834,0.003288,
4.135,-64.4231,-6.5,-2.329,-0.001066,
4.14,-64.4182,-6.4,2.501,0.002755,
4.145,-64.4195,-6.5,-1.167,-0.001155,
4.15,-64.4188,-6.5,3.307,0,
4.155,-64.4195,-6.4,0.547,-0.000622,
4.16,-64.4201,-6.4,-1.387,0,
4.165,-64.4207,-6.4,2.471,-0.000533,
4.17,-64.4195,-6.4,1.301,0.002133,
4.175,-64.4188,-6.5,-1.84,0.000622,
4.18,-64.4207,-6.4,0.133,-0.001066,
4.185,-64.4188,-6.5,-2.176,-0.000533,
4.19,-64.4231,-6.4,-4.9,-0.005422,
4.195,-64.4213,-6.4,-0.82,-0.002755,
4.2,-64.4219,-6.4,2.712,-0.001066,
4.205,-64.4213,-6.4,4.065,-0.000533,
4.21,-64.4219,-6.5,2.914,0,
4.215,-64.4188,-6.4,0.707,0.002222,
4.22,-64.4182,-6.4,1.587,0.004888,
4.225,-64.4188,-6.4,-2.203,0.003822,
4.23,-64.4182,-6.5,-2.5,0,
4.235,-64.4201,-6.4,6.23,0.0016,
4.24,-64.4182,-6.4,-1.131,-0.000533,
4.245,-64.4207,-6.4,-3.474,-0.002222,
4.25,-64.4225,-6.4,-0.541,-0.003288,
4.255,-64.4213,-6.5,1.413,-0.002755,
4.26,-64.4195,-6.5,-1.668,0,
4.265,-64.4182,-6.4,-2.235,0.001155,
4.27,-64.4182,-6.5,1.324,0.003288,
4.275,-64.4201,-6.5,-0.43,-0.001688,
4.28,-64.4182,-6.4,-0.711,0,
4.285,-64.4237,-6.4,-2.002,-0.004888,
4.29,-64.4195,-6.5,1.431,0.001066,
4.295,-64.4195,-6.5,-1.87,-0.001688,
4.3,-64.4182,-6.5,-1.508,0,
4.305,-64.4207,-6.4,-1.697,-0.001066,
4.31,-64.4182,-6.5,1.389,0.001155,
4.315,-64.4182,-6.5,0.158,0.000533,
4.32,-64.4182,-6.4,1.334,0.002222,
4.325,-64.4207,-6.4,-0.329,-0.001688,
4.33,-64.4182,-6.5,1.686,0.001688,
4.335,-64.4195,-6.5,-3.427,-0.001155,
4.34,-64.4201,-6.4,-2.231,-0.001155,
4.345,-64.4237,-6.4,-2.199,-0.004888,
4.35,-64.4195,-6.4,3.266,0.002666,
4.355,-64.4231,-6.4,-0.112,-0.0032,
4.36,-64.4201,-6.4,3.499,0.001066,
4.365,-64.4201,-6.5,3.917,0.0032,
4.37,-64.4182,-6.4,-1.437,0.000533,
4.375,-64.4195,-6.5,-0.735,0.001066,
4.38,-64.4182,-6.4,-0.297,0.004355,
4.385,-64.4182,-6.5,-2.282,0,
4.39,-64.4195,-6.4,-1.929,-0.001155,
4.395,-64.4213,-6.4,-0.327,-0.003288,
4.4,-64.4188,-6.5,-1.723,0,
4.405,-64.4182,-6.4,-1.244,-0.000533,
4.41,-64.4195,-6.5,-1.459,-0.001155,
4.415,-64.4182,-6.4,-1.985,0.000533,
4.42,-64.4201,-6.4,-0.621,-0.001688,
4.425,-64.4182,-6.5,-0.973,0,
4.43,-64.4219,-6.4,0.693,-0.002133,
4.435,-64.4182,-6.5,0.037,0,
4.44,-64.4182,-6.5,-0.438,0,
4.445,-64.4201,-6.4,1.324,-0.001688,
4.45,-64.4207,-6.4,-3.75,-0.002222,
4.455,-64.4188,-6.5,3.59,-0.000533,
4.46,-64.4182,-6.5,-1.819,0,
4.465,-64.4207,-6.5,-4.114,-0.002222,
4.47,-64.4188,-6.4,-1.046,-0.000533,
4.475,-64.4219,-6.4,1.654,-0.000533,
4.48,-64.4201,-6.5,-0.113,-0.001688,
4.485,-64.4213,-6.4,0.344,-0.0016,
4.49,-64.4195,-6.4,2.013,0,
4.495,-64.4219,-6.4,-0.241,-0.000533,
4.5,-64.4213,-6.4,2.147,-0.002755,
4.505,-64.4201,-6.5,-1.995,-0.001155,
4.51,-64.4225,-6.5,2.728,-0.002666,
4.515,-64.4182,-6.5,-0.81,0,
4.52,-64.4188,-6.4,-1.74,-0.000533,
4.525,-64.4188,-6.4,-0.159,-0.000533,
4.53,-64.4182,-6.5,-1.261,0.002755,
4.535,-64.4195,-6.4,-0.165,-0.001155,
4.54,-64.4182,-6.4,3.548,0.001155,
4.545,-64.4164,-6.4,-0.658,0.0016,
4.55,-64.4195,-6.4,-0.067,-0.000622,
4.555,-64.4225,-6.4,-0.567,-0.002666,
4.56,-64.4182,-6.4,-0.735,0.001155,
4.565,-64.4207,-6.5,-1.682,-0.002222,
4.57,-64.4182,-6.4,1.356,0.001155,
4.575,-64.4195,-6.5,-0.691,-0.001155,
4.58,-64.4207,-6.5,-0.36,-0.002222,
4.585,-64.4201,-6.5,-0.655,-0.001688,
4.59,-64.4182,-6.4,-2.231,0,
4.595,-64.4182,-6.5,3.547,0.000533,
4.6,-64.4249,-6.4,-0.062,-0.005955,
4.605,-64.4384,-6.5,-1.321,-0.001688,
4.61,-64.489,-6.7,-1.294,-0.015733,
4.615,-64.63,-6.9,-2.133,-0.034666,
4.62,-64.8821,-7,-4.237,-0.060799,
4.625,-65.2428,-7.2,-2.267,-0.081866,
4.63,-65.703,-7.1,-2.035,-0.098222,
4.635,-66.2511,-7.2,-2.742,-0.114488,
4.64,-66.8541,-7.6,-2.566,-0.126399,
4.645,-67.484,-8.6,0.725,-0.127999,
4.65,-68.1243,-9.9,1.092,-0.127466,
4.655,-68.7536,-11.4,-1.307,-0.124799,
4.66,-69.3572,-12.7,2.218,-0.114488,
4.665,-69.9212,-14.1,-2.74,-0.108533,
4.67,-70.4339,-21.6,6.454,-0.095022,
4.675,-70.7317,-34.8,12.215,-0.033066,
4.68,-70.7378,-35,4.141,0.013066,
4.685,-70.7201,-33,-4.817,-0.000533,
4.69,-70.739,-33.8,-4.332,-0.008088,
4.695,-70.7537,-35.2,-0.733,-0.001066,
4.7,-70.7616,-35.7,-3.899,-0.005422,
4.705,-70.7757,-37.1,-5.195,-0.007111,
4.71,-70.8019,-38.8,3.957,-0.005422,
4.715,-70.8129,-39.3,1.05,-0.002755,
4.72,-70.8074,-38.9,-4.652,-0.000533,
4.725,-70.8068,-38.5,0.135,0,
4.73,-70.8068,-38.1,3.413,0.008088,
4.735,-70.8104,-38.1,-0.461,0.002222,
4.74,-70.8135,-38.2,-4.456,-0.004888,
4.745,-70.8104,-38.5,-1.414,0.002222,
4.75,-70.8074,-38.4,2.142,0.000533,
4.755,-70.8111,-38.2,-4.423,0,
4.76,-70.8098,-38,1.908,0.002755,
4.765,-70.808,-37.9,0.028,-0.000533,
4.77,-70.8141,-37.9,-3.308,-0.003822,
4.775,-70.8123,-38,1.603,0,
4.78,-70.8135,-38,-2.332,-0.002133,
4.785,-70.8159,-37.8,-4.94,-0.002666,
4.79,-70.8129,-37.8,0.866,-0.000533,
4.795,-70.8184,-37.9,-0.889,-0.001066,
4.8,-70.8135,-37.9,-1.353,0.002133,
4.805,-70.8172,-38.1,0.052,-0.000622,
4.81,-70.8159,-38.1,1.906,-0.001066,
4.815,-70.8184,-38,-0.356,0,
4.82,-70.8184,-37.8,-2.845,0.000533,
4.825,-70.8184,-37.7,-0.493,0.000533,
4.83,-70.8184,-37.7,-0.586,-0.001688,
4.835,-70.8135,-37.9,1.514,0.004355,
4.84,-70.8184,-38,-0.019,0,
4.845,-70.8184,-38,0.419,0,
4.85,-70.8184,-37.9,1.519,0,
4.855,-70.8172,-37.9,-0.798,0.000533,
4.86,-70.819,-37.8,0.826,0,
4.865,-70.819,-37.8,-0.902,-0.0016,
4.87,-70.8184,-37.9,0.557,0,
4.875,-70.819,-37.9,-1.516,-0.000533,
4.88,-70.8196,-38,0.12,-0.001066,
4.885,-70.819,-38,-1.92,0,
4.89,-70.8184,-37.9,0.392,0.000533,
4.895,-70.8202,-37.8,-1.041,-0.000533,
4.9,-70.8214,-37.7,1.71,0,
4.905,-70.8202,-37.8,0.735,-0.001066,
4.91,-70.8184,-37.9,2.082,0.000533,
4.915,-70.819,-37.9,-0.982,-0.001066,
4.92,-70.8208,-37.9,2.189,0.000533,
4.925,-70.8233,-38,2.077,-0.000533,
4.93,-70.8196,-37.9,-3.093,-0.001066,
4.935,-70.819,-38,-2.434,-0.000533,
4.94,-70.819,-37.9,-1.653,0.004355,
4.945,-70.8233,-37.9,-2.176,-0.004355,
4.95,-70.8208,-37.9,-1.46,0.001688,
4.955,-70.8227,-38,3.14,0.001066,
4.96,-70.8245,-37.9,1.03,-0.000533,
4.965,-70.8239,-37.9,-3.04,-0.003288,
4.97,-70.8233,-37.9,-0.691,-0.002222,
4.975,-70.8239,-37.9,0.239,-0.003288,
4.98,-70.8239,-37.9,0.202,-0.002222,
4.985,-70.8239,-37.9,-0.422,0.000533,
4.99,-70.8245,-38,-0.737,0,
4.995,-70.8275,-38,-1.256,-0.001066,
5,-70.8288,-38,0.37,-0.004355,
5.005,-70.8196,-37.9,-1.856,0,
5.01,-70.8239,-37.9,-3.087,-0.000533,
5.015,-70.8251,-38,0.182,-0.001066,
5.02,-70.8239,-38,-0.127,0.001066,
5.025,-70.8275,-37.9,1.67,-0.002666,
5.03,-70.8257,-37.9,-2.082,-0.001066,
5.035,-70.8227,-37.9,1.737,0.001066,
5.04,-70.8239,-37.9,0.539,0.0032,
5.045,-70.8245,-37.9,-1.599,-0.000533,
5.05,-70.8288,-38,2.624,-0.001155,
5.055,-70.8239,-38,-0.767,0.002133,
5.06,-70.8227,-38,-1.441,0.004266,
5.065,-70.8294,-38,-3.838,-0.003822,
5.07,-70.8245,-38,-2.952,0.000533,
5.075,-70.8263,-37.9,2.338,0,
5.08,-70.8245,-38,-2.225,-0.000533,
5.085,-70.8245,-38,2.436,0.002666,
5.09,-70.8245,-37.9,1.512,0.002666,
5.095,-70.8257,-38,2.493,0.002755,
5.1,-70.8263,-38,-0.306,0.0016,
5.105,-70.8269,-38,-0.76,0.000533,
5.11,-70.8263,-38,-1.393,0.002222,
5.115,-70.8251,-38,-0.001,0,
5.12,-70.8288,-38,0.415,0,
5.125,-70.8239,-38,4.179,0.004355,
5.13,-70.83,-38,0.149,-0.002222,
5.135,-70.8257,-38,3.822,0,
5.14,-70.8263,-38,-1.66,-0.001066,
5.145,-70.8306,-37.9,0.91,-0.0016,
5.15,-70.8312,-37.9,-3.358,-0.005422,
5.155,-70.8275,-37.9,2.441,0,
5.16,-70.83,-38,0.562,-0.002222,
5.165,-70.8288,-37.9,-5.167,-0.003288,
5.17,-70.8306,-38,0.877,-0.002755,
5.175,-70.8275,-37.9,-0.966,-0.000533,
5.18,-70.8269,-38,-0.973,0.003288,
5.185,-70.8269,-38,1.65,-0.001066,
5.19,-70.8251,-38,3.285,0.005422,
5.195,-70.8251,-38,0.869,0.002133,
5.2,-70.8245,-38,-1.995,0.000533,
5.205,-70.8104,-37.3,4.288,0.007111,
5.21,-70.7909,-35.6,-1.959,0.005955,
5.215,-70.7201,-30.9,3.174,0.018488,
5.22,-70.6231,-25.2,-4.085,0.0168,
5.225,-70.4998,-19.7,1.801,0.024977,
5.23,-70.3441,-15.7,-0.242,0.031466,
5.235,-70.122,-13.7,7.458,0.055288,
5.24,-69.7649,-12.9,6.235,0.086844,
5.245,-69.2632,-12,4.121,0.112266,
5.25,-68.6236,-11.2,4.02,0.137777,
5.255,-67.9143,-10.3,1.798,0.145422,
5.26,-67.1801,-9.3,-0.739,0.1448,
5.265,-66.4727,-8.2,-1.609,0.135111,
5.27,-65.8416,-7.4,-5.401,0.117155,
5.275,-65.3264,-6.6,-2.984,0.0944,
5.28,-64.9321,-6.2,-4.384,0.071644,
5.285,-64.6636,-6.3,-4.569,0.043377,
5.29,-64.5,-6.6,-2.569,0.023911,
5.295,-64.4274,-6.7,-2.869,0.004888,
5.3,-64.4243,-6.7,0.734,0.001155,
5.305,-64.4298,-6.7,1.701,-0.0032,
5.31,-64.4262,-6.7,1.949,0.0016,
5.315,-64.4298,-6.6,3.866,0,
5.32,-64.4298,-6.6,2.642,-0.000533,
5.325,-64.4274,-6.5,2.507,0.000533,
5.33,-64.4268,-6.5,1.088,0,
5.335,-64.4268,-6.5,0.224,-0.002222,
5.34,-64.4292,-6.5,-2.705,-0.002133,
5.345,-64.4268,-6.4,-1.025,-0.001066,
5.35,-64.4286,-6.4,-0.12,0,
5.355,-64.4243,-6.4,0.333,0.002222,
5.36,-64.4298,-6.5,-0.394,-0.001066,
5.365,-64.4298,-6.4,-1.364,-0.004355,
5.37,-64.4298,-6.5,-3.839,-0.0016,
5.375,-64.4286,-6.4,-3.691,-0.002133,
5.38,-64.4249,-6.4,2.204,0.002755,
5.385,-64.4243,-6.4,1.632,0.000533,
5.39,-64.4274,-6.4,2.871,0.002133,
5.395,-64.4268,-6.4,-0.749,-0.000533,
5.4,-64.4268,-6.4,0.274,0.000533,
5.405,-64.4268,-6.4,1.686,-0.001066,
5.41,-64.4249,-6.4,-1.472,0.001688,
5.415,-64.4256,-6.5,-0.486,0.001066,
5.42,-64.4268,-6.5,-3.343,-0.002222,
5.425,-64.4274,-6.5,-1.085,-0.002222,
5.43,-64.428,-6.5,-2.133,-0.002133,
5.435,-64.4268,-6.5,2.011,0.001066,
5.44,-64.4286,-6.5,0.279,-0.001066,
5.445,-64.4268,-6.5,-1.472,-0.001688,
5.45,-64.4298,-6.5,-2.521,-0.002666,
5.455,-64.4237,-6.5,-2.076,0.003288,
5.46,-64.4262,-6.5,1.467,0.0016,
5.465,-64.4286,-6.4,-2.493,-0.002133,
5.47,-64.4268,-6.4,0.547,-0.000533,
5.475,-64.4268,-6.5,-0.15,0.0016,
5.48,-64.4292,-6.5,3.657,-0.0032,
5.485,-64.4237,-6.4,-0.29,0,
5.49,-64.4243,-6.5,0.135,-0.000533,
5.495,-64.4249,-6.5,0.027,0,
5.5,-64.4231,-6.5,-4.706,-0.0016,
5.505,-64.4298,-6.5,-2.97,-0.003733,
5.51,-64.4268,-6.4,-4.987,-0.001688,
5.515,-64.4298,-6.4,0.654,-0.004355,
5.52,-64.4268,-6.5,-0.29,0,
5.525,-64.4243,-6.4,-1.885,0.001688,
5.53,-64.4286,-6.5,-0.28,-0.003822,
5.535,-64.4262,-6.4,-0.922,-0.001155,
5.54,-64.4286,-6.5,1.375,-0.002133,
5.545,-64.4292,-6.4,1.639,-0.0016,
5.55,-64.4286,-6.4,-2.538,-0.004888,
5.555,-64.4262,-6.4,2.059,0.002133,
5.56,-64.4286,-6.5,-2.692,-0.004355,
5.565,-64.4286,-6.5,2.392,0.000533,
5.57,-64.4268,-6.4,-0.388,-0.002222,
5.575,-64.4268,-6.5,0.771,0.000533,
5.58,-64.4268,-6.4,-1.166,0.000533,
5.585,-64.4274,-6.4,2.332,-0.002222,
5.59,-64.4262,-6.5,-1.244,-0.000533,
5.595,-64.4268,-6.4,-1.364,-0.004355,
5.6,-64.428,-6.4,-1.348,0.000533,
5.605,-64.4237,-6.4,2.544,0.001066,
5.61,-64.4274,-6.4,-2.804,-0.0016,
5.615,-64.4268,-6.5,-2.603,-0.001066,
5.62,-64.4286,-6.5,1.385,-0.002133,
5.625,-64.4274,-6.4,-0.524,-0.002222,
5.63,-64.4274,-6.4,1.533,-0.002222,
5.635,-64.4286,-6.5,-4.05,-0.004355,
5.64,-64.428,-6.5,-1.388,-0.002755,
5.645,-64.4286,-6.4,-0.56,0,
5.65,-64.428,-6.5,3.353,0.001066,
5.655,-64.4268,-6.4,2.472,0.001066,
5.66,-64.4286,-6.4,1.042,-0.001066,
5.665,-64.4243,-6.5,2.566,0.002222,
5.67,-64.4262,-6.4,-2.102,-0.001688,
5.675,-64.4298,-6.5,-0.138,-0.002666,
5.68,-64.4268,-6.4,5.597,-0.000533,
5.685,-64.4268,-6.4,-0.314,-0.001066,
5.69,-64.4286,-6.5,0.491,-0.001066,
5.695,-64.4286,-6.5,2.149,0.001066,
5.7,-64.4213,-6.5,3.129,0.004888,
5.705,-64.4249,-6.5,0.177,0,
5.71,-64.4268,-6.4,-0.603,-0.001688,
5.715,-64.4256,-6.5,-3.985,-0.000622,
5.72,-64.428,-6.5,-5.395,-0.004888,
5.725,-64.4237,-6.4,2.739,0.002222,
5.73,-64.428,-6.5,4.124,0.0016,
5.735,-64.4274,-6.5,-0.012,0.000533,
5.74,-64.4298,-6.4,-0.948,-0.004355,
5.745,-64.4225,-6.4,3.588,0.003822,
5.75,-64.4286,-6.5,-0.394,-0.0016,
5.755,-64.4243,-6.5,-3.394,-0.000533,
5.76,-64.4286,-6.5,-1.993,-0.001066,
5.765,-64.4237,-6.5,-0.179,0.003288,
5.77,-64.4286,-6.4,-0.273,-0.002666,
5.775,-64.4243,-6.5,2.672,0.002222,
5.78,-64.428,-6.4,-1.408,-0.002755,
5.785,-64.4268,-6.5,-1.948,-0.000533,
5.79,-64.4274,-6.5,-0.549,-0.003288,
5.795,-64.4298,-6.5,-2.623,-0.0032,
5.8,-64.4243,-6.5,-4.804,-0.000533,
5.805,-64.4243,-6.5,-5.771,-0.002666,
5.81,-64.4231,-6.4,3.712,-0.001066,
5.815,-64.4231,-6.5,-2.515,-0.002133,
5.82,-64.4207,-6.4,3.206,0.003733,
5.825,-64.4195,-6.5,-3.105,-0.001688,
5.83,-64.4146,-6.4,0.26,0.0016,
5.835,-64.3993,-6.4,-3.902,0.000533,
5.84,-64.348,-6.4,3.1,0.016355,
5.845,-64.276,-6.4,-2.635,0.013066,
